18 198		# first data record, number of data records 
Structure:	BrO
Name:	bromine monoxide
Author(Year):	JPL-2006(2006)
Temperature:	298K
Wavelength range:	286.5-385.0nm(rec)
Bibliography:

S.P. Sander, R.R. Friedl, D.M. Golden, M.J. Kurylo, G.K. Moortgat, H. Keller-Rudek, P.H. Wine, A.R. Ravishankara, C.E. Kolb, M.J. Molina, B.J. Finlayson-Pitts, R.E. Huie, V.L. Orkin, “Chemical Kinetics and Photochemical Data for Use in Atmospheric Studies. Evaluation Number 15“, JPL Publication 06-2, Jet Propulsion Laboratory, Pasadena, 2006.
Comments:

JPL-2006 recommendation:

286.5-385.0 nm, averages over 0.5-nm intervals of the high-resolution spectrum of

D.M. Wilmouth, T.F. Hanisco, N.M. Donahue, and J.G. Anderson, "Fourier transform ultraviolet spectroscopy of the A 2Π 3/2 ← X 2Π 3/2 transition of BrO," J. Phys. Chem. A 103, 8935-8945 (1999).

286.5    1.048e-18
287.0    1.065e-18
287.5    1.288e-18
288.0    9.504e-19
288.5    1.477e-18
289.0    1.098e-18
289.5    1.264e-18
290.0    1.838e-18
290.5    1.331e-18
291.0    1.335e-18
291.5    1.886e-18
292.0    1.572e-18
292.5    1.283e-18
293.0    2.482e-18
293.5    1.925e-18
294.0    1.404e-18
294.5    1.615e-18
295.0    2.944e-18
295.5    2.161e-18
296.0    1.639e-18
296.5    1.529e-18
297.0    3.611e-18
297.5    2.765e-18
298.0    1.935e-18
298.5    1.564e-18
299.0    2.840e-18
299.5    4.211e-18
300.0    2.753e-18
300.5    1.935e-18
301.0    1.801e-18
301.5    3.509e-18
302.0    5.023e-18
302.5    3.184e-18
303.0    2.174e-18
303.5    1.959e-18
304.0    2.740e-18
304.5    6.096e-18
305.0    4.662e-18
305.5    2.984e-18
306.0    2.211e-18
306.5    2.097e-18
307.0    4.072e-18
307.5    7.031e-18
308.0    5.183e-18
308.5    3.436e-18
309.0    2.276e-18
309.5    1.936e-18
310.0    3.955e-18
310.5    7.989e-18
311.0    6.592e-18
311.5    4.531e-18
312.0    2.948e-18
312.5    2.037e-18
313.0    1.973e-18
313.5    7.239e-18
314.0    9.013e-18
314.5    6.508e-18
315.0    4.432e-18
315.5    3.109e-18
316.0    2.317e-18
316.5    1.737e-18
317.0    7.211e-18
317.5    1.136e-17
318.0    7.307e-18
318.5    4.823e-18
319.0    3.446e-18
319.5    2.751e-18
320.0    2.514e-18
320.5    2.937e-18
321.0    1.138e-17
321.5    1.155e-17
322.0    6.769e-18
322.5    4.196e-18
323.0    3.006e-18
323.5    2.617e-18
324.0    2.882e-18
324.5    4.336e-18
325.0    9.826e-18
325.5    1.283e-17
326.0    8.376e-18
326.5    4.948e-18
327.0    3.120e-18
327.5    2.311e-18
328.0    2.235e-18
328.5    3.431e-18
329.0    7.891e-18
329.5    1.261e-17
330.0    1.058e-17
330.5    7.062e-18
331.0    4.534e-18
331.5    2.959e-18
332.0    2.031e-18
332.5    1.647e-18
333.0    2.598e-18
333.5    9.528e-18
334.0    1.294e-17
334.5    9.633e-18
335.0    6.523e-18
335.5    4.575e-18
336.0    3.388e-18
336.5    2.587e-18
337.0    2.221e-18
337.5    2.020e-18
338.0    2.018e-18
338.5    1.287e-17
339.0    1.296e-17
339.5    7.344e-18
340.0    4.448e-18
340.5    3.031e-18
341.0    2.431e-18
341.5    2.175e-18
342.0    2.350e-18
342.5    2.916e-18
343.0    4.238e-18
343.5    7.119e-18
344.0    9.678e-18
344.5    8.144e-18
345.0    5.421e-18
345.5    3.450e-18
346.0    2.259e-18
346.5    1.603e-18
347.0    1.464e-18
347.5    1.622e-18
348.0    2.578e-18
348.5    5.295e-18
349.0    7.477e-18
349.5    6.674e-18
350.0    4.992e-18
350.5    3.634e-18
351.0    2.724e-18
351.5    2.153e-18
352.0    1.819e-18
352.5    1.659e-18
353.0    1.628e-18
353.5    1.632e-18
354.0    1.795e-18
354.5    3.093e-18
355.0    7.894e-18
355.5    4.986e-18
356.0    2.762e-18
356.5    1.662e-18
357.0    1.199e-18
357.5    1.111e-18
358.0    1.153e-18
358.5    1.236e-18
359.0    1.436e-18
359.5    1.827e-18
360.0    2.364e-18
360.5    2.723e-18
361.0    2.644e-18
361.5    2.266e-18
362.0    1.829e-18
362.5    1.452e-18
363.0    1.199e-18
363.5    1.037e-18
364.0    1.133e-18
364.5    1.222e-18
365.0    9.915e-19
365.5    8.715e-19
366.0    8.623e-19
366.5    9.126e-19
367.0    1.050e-18
367.5    1.234e-18
368.0    1.305e-18
368.5    1.195e-18
369.0    1.009e-18
369.5    8.611e-19
370.0    7.479e-19
370.5    6.446e-19
371.0    5.391e-19
371.5    4.647e-19
372.0    3.944e-19
372.5    3.513e-19
373.0    3.413e-19
373.5    3.568e-19
374.0    4.808e-19
374.5    7.497e-19
375.0    7.053e-19
375.5    5.146e-19
376.0    3.544e-19
376.5    3.047e-19
377.0    2.746e-19
377.5    2.566e-19
378.0    2.561e-19
378.5    2.182e-19
379.0    1.860e-19
379.5    1.496e-19
380.0    1.228e-19
380.5    1.303e-19
381.0    1.955e-19
381.5    2.093e-19
382.0    1.676e-19
382.5    9.049e-20
383.0    3.059e-20
383.5    4.924e-20
384.0    3.892e-20
384.5    6.695e-20
385.0    1.093e-19
