10 230		# first data record, number of data records 
Structure:	I2O4
Name:	
Author(Year):	JCGM (2020-03-27)-updated
Temperature:	298K
Wavelength range: 
Bibliography:

wavelength	sigma/ cm2 molecule-1
250.011865	3.58009E-18
251.0618557	3.60078E-18
252.1120584	3.63003E-18
253.1624734	3.66843E-18
254.2131005	3.71653E-18
255.26394	3.77488E-18
256.3149918	3.84397E-18
257.366256	3.92421E-18
258.4177327	4.01594E-18
259.469422	4.11937E-18
260.5213238	4.23461E-18
261.5734384	4.36161E-18
262.6257656	4.50017E-18
263.6783057	4.64994E-18
264.7310587	4.8104E-18
265.7840245	4.98089E-18
266.8372034	5.16056E-18
267.8905954	5.34844E-18
268.9442004	5.54342E-18
269.9980187	5.74426E-18
271.0520502	5.94962E-18
272.1062951	6.1581E-18
273.1607533	6.3682E-18
274.215425	6.57843E-18
275.2703102	6.78727E-18
276.3254089	6.9932E-18
277.3807214	7.19477E-18
278.4362475	7.39056E-18
279.4919874	7.57925E-18
280.5479412	7.75961E-18
281.6041088	7.93054E-18
282.6604904	8.09106E-18
283.7170861	8.24034E-18
284.7738959	8.37767E-18
285.8309198	8.50253E-18
286.888158	8.61453E-18
287.9456104	8.71343E-18
289.0032772	8.79916E-18
290.0611585	8.87176E-18
291.1192542	8.93142E-18
292.1775645	8.97843E-18
293.2360894	9.01322E-18
294.294829	9.03627E-18
295.3537834	9.04816E-18
296.4129525	9.04955E-18
297.4723366	9.0411E-18
298.5319356	9.02354E-18
299.5917496	8.99761E-18
300.6517787	8.96405E-18
301.7120229	8.92358E-18
302.7724824	8.87693E-18
303.8331571	8.82477E-18
304.8940472	8.76774E-18
305.9551527	8.70645E-18
307.0164736	8.64143E-18
308.0780101	8.57319E-18
309.1397622	8.50215E-18
310.20173	8.42869E-18
311.2639135	8.35312E-18
312.3263128	8.2757E-18
313.3889279	8.19663E-18
314.451759	8.11607E-18
315.5148061	8.03412E-18
316.5780693	7.95084E-18
317.6415486	7.86624E-18
318.7052441	7.78031E-18
319.7691558	7.69302E-18
320.8332839	7.6043E-18
321.8976284	7.51408E-18
322.9621893	7.42226E-18
324.0269668	7.32876E-18
325.0919608	7.23347E-18
326.1571716	7.1363E-18
327.222599	7.03716E-18
328.2882432	6.93599E-18
329.3541043	6.83272E-18
330.4201823	6.7273E-18
331.4864773	6.61972E-18
332.5529894	6.50995E-18
333.6197185	6.39802E-18
334.6866649	6.28396E-18
335.7538285	6.16783E-18
336.8212095	6.04969E-18
337.8888078	5.92966E-18
338.9566236	5.80783E-18
340.0246569	5.68436E-18
341.0929078	5.55937E-18
342.1613763	5.43305E-18
343.2300626	5.30557E-18
344.2989666	5.17711E-18
345.3680885	5.04787E-18
346.4374283	4.91807E-18
347.5069861	4.7879E-18
348.576762	4.65758E-18
349.646756	4.52732E-18
350.7169681	4.39734E-18
351.7873986	4.26784E-18
352.8580473	4.13905E-18
353.9289144	4.01115E-18
355	3.88434E-18
356.0713041	3.75881E-18
357.1428268	3.63474E-18
358.2145681	3.51229E-18
359.2865282	3.39164E-18
360.358707	3.27291E-18
361.4311047	3.15626E-18
362.5037213	3.04179E-18
363.576557	2.92964E-18
364.6496116	2.81989E-18
365.7228854	2.71263E-18
366.7963784	2.60794E-18
367.8700906	2.50588E-18
368.9440222	2.40651E-18
370.0181732	2.30986E-18
371.0925436	2.21598E-18
372.1671335	2.12487E-18
373.241943	2.03655E-18
374.3169722	1.95103E-18
375.3922212	1.86829E-18
376.4676899	1.78832E-18
377.5433785	1.71111E-18
378.619287	1.63661E-18
379.6954155	1.5648E-18
380.771764	1.49563E-18
381.8483328	1.42907E-18
382.9251217	1.36505E-18
384.0021308	1.30354E-18
385.0793603	1.24446E-18
386.1568103	1.18776E-18
387.2344806	1.13338E-18
388.3123716	1.08126E-18
389.3904831	1.03133E-18
390.4688153	9.83512E-19
391.5473682	9.37754E-19
392.626142	8.93982E-19
393.7051366	8.52131E-19
394.7843522	8.1213E-19
395.8637888	7.73915E-19
396.9434465	7.37417E-19
398.0233253	7.02571E-19
399.1034253	6.69314E-19
400.1837466	6.37581E-19
401.2642893	6.0731E-19
402.3450534	5.78441E-19
403.426039	5.50915E-19
404.5072461	5.24675E-19
405.5886749	4.99664E-19
406.6703254	4.75829E-19
407.7521976	4.53118E-19
408.8342916	4.3148E-19
409.9166076	4.10867E-19
410.9991455	3.91231E-19
412.0819054	3.72528E-19
413.1648875	3.54715E-19
414.2480917	3.3775E-19
415.3315182	3.21593E-19
416.4151669	3.06206E-19
417.4990381	2.91553E-19
418.5831317	2.77598E-19
419.6674478	2.64309E-19
420.7519865	2.51654E-19
421.8367478	2.39602E-19
422.9217318	2.28125E-19
424.0069387	2.17194E-19
425.0923684	2.06784E-19
426.178021	1.9687E-19
427.2638966	1.87427E-19
428.3499953	1.78434E-19
429.4363171	1.69869E-19
430.5228621	1.6171E-19
431.6096304	1.5394E-19
432.696622	1.46539E-19
433.783837	1.39489E-19
434.8712755	1.32774E-19
435.9589375	1.26379E-19
437.0468232	1.20287E-19
438.1349325	1.14485E-19
439.2232656	1.0896E-19
440.3118225	1.03697E-19
441.4006033	9.86852E-20
442.4896081	9.39127E-20
443.5788368	8.93683E-20
444.6682897	8.50415E-20
445.7579668	8.09222E-20
446.847868	7.7001E-20
447.9379936	7.32688E-20
449.0283436	6.9717E-20
450.1189179	6.63374E-20
451.2097168	6.31224E-20
452.3007403	6.00645E-20
453.3919885	5.71567E-20
454.4834613	5.43924E-20
455.575159	5.17652E-20
456.6670815	4.92691E-20
457.7592289	4.68983E-20
458.8516013	4.46475E-20
459.9441988	4.25115E-20
461.0370215	4.04854E-20
462.1300693	3.85645E-20
463.2233424	3.67444E-20
464.3168409	3.50208E-20
465.4105647	3.33899E-20
466.5045141	3.18478E-20
467.598689	3.03909E-20
468.6930896	2.90158E-20
469.7877158	2.77193E-20
470.8825678	2.64983E-20
471.9776456	2.53499E-20
473.0729493	2.42714E-20
474.1684791	2.32602E-20
475.2642348	2.23139E-20
476.3602167	2.143E-20
477.4564247	2.06065E-20
478.552859	1.98413E-20
479.6495196	1.91323E-20
480.7464067	1.84779E-20
481.8435202	1.78762E-20
482.9408602	1.73257E-20
484.0384268	1.68248E-20
485.1362201	1.63721E-20
486.2342401	1.59663E-20
487.332487	1.56062E-20
488.4309607	1.52905E-20
489.5296614	1.50182E-20
490.6285891	1.47883E-20
491.727744	1.45998E-20
492.8271259	1.4452E-20
493.9267352	1.43439E-20
495.0265717	1.4275E-20
496.1266356	1.42444E-20
